# SFF main_header 6
# beamline_name = "APS 10ID"; 
# %date = "Mon Jun 03 2013 19:44:32"; 
# edge_energy = 30491; 
# sff_header1 = " "; 
# sff_header2 = " "; 
# %devices = smy smx Io It corr_roi1_0 corr_roi2_0 corr_roi3_0 corr_roi4_0;
 89000      16000          197182     197241 320.8501   514.00067  746.78651  586.02057 
 89000      16600          197182     192094 1284.0168  1506.8995  1629.824   1414.3563 
 89000      17200          197181     104456 1318.1945  1571.0878  1895.4351  1607.8734 
 89000      17800          197181      97315 1292.278   1477.7847  1672.8957  1519.4696 
 89000      18400          197182     126206 1382.8706  1470.1553  1762.2907  1467.8095 
 89000      19000          197182      40513 1897.823   1917.585   2364.3606  2137.8001 
 89000      19600          197182      23986 2097.4306  2457.3243  2392.1314  2531.8726 
 89000      20200          197182      16348 2416.6462  2643.6604  2861.4538  2812.0335 
 89000      20800          197182      15280 16098.512  13804.751  17558.786  16814.222 
 89000      21400          197182      33787 14664.955  13032.86   16849.642  15810.156 
 89000      22000          197182      44021 12329.46   11303.869  13936.316  13382.703 
 89000      22600          197181      51513 10131.171  9837.0373  11629.921  11061.674 
 89000      23200          197182      61569 6686.0952  6710.263   7412.8725  7412.7801 
 89000      23800          197182      63248 10456.233  9989.0422  11342.27   11278.796 
 89000      24400          197182      71213 5886.6122  5729.5244  6676.3311  6644.8808 
 89000      25000          197182      71525 5657.7987  5241.1957  6180.9483  5626.6239 
 89000      25600          197182      70884 5253.1379  5506.9084  6378.5149  5964.2337 
 89000      26200          197182      60171 11414.549  10751.983  13388.276  12181.861 
 89000      26800          197182      66486 10955.729  10169.606  12278.157  11946.898 
 89000      27400          197182      67717 8542.3938  8129.6751  9852.6347  8827.4024 
 89000      28000          197182      59403 16227.571  14442.601  17850.513  16508.272 
 89000      28600          197181      58453 10764.889  10394.578  12485.965  11762.82  
 89000      29200          197182      55432 11903.506  11628.438  13852.888  13033.217 
 89000      29800          197182      44349 16927.419  16790.784  19795.654  18060.409 
 89000      30400          197182      35666 18403.471  17750.159  21191.384  19636.168 
 89000      31000          197182      21549 22859.671  21139.967  24547.726  24501.385 
 89000      31600          197182      12749 5961.6313  6923.9006  7361.6454  6549.4542 
 89000      32200          197182      16861 5820.1068  6735.0724  7003.46    6607.8249 
 89000      32800          197182      24941 5783.8596  6626.2223  7181.1661  6639.4335 
 89000      33400          197182      39972 5498.6585  6496.2614  6396.4414  6249.609  
 89000      34000          197182      82202 5168.4526  5631.8717  5992.4341  5379.9637 
 89000      34600          197182     140503 4321.5809  5323.6608  5703.6409  5123.4693 
 89000      35200          197182     197240 1973.6249  2522.9786  2698.2102  2332.4777 
 89000      35800          197182     197240 419.91405  698.56358  646.2649   618.76227 
 90000      16000          197182     197240 458.87824  535.25629  660.60987  520.43318 
 90000      16600          197182     197240 1261.9166  1456.1721  1629.3899  1457.4652 
 90000      17200          197182     111918 1596.4822  1543.0608  1960.8895  1865.4282 
 90000      17800          197182      93299 1091.2618  1350.1578  1555.7889  1423.8283 
 90000      18400          197182     130704 1170.1196  1430.5864  1646.246   1575.6062 
 90000      19000          197182      42025 1861.05    1996.3428  2367.6878  2104.6298 
 90000      19600          197182      24246 1886.3415  2247.0479  2475.0876  2450.3888 
 90000      20200          197182      16383 2189.8425  2748.7298  3034.9487  2734.9156 
 90000      20800          197182      13661 16710.425  14999.271  17449.964  16848.959 
 90000      21400          197182      32921 13620.282  12153.959  15182.484  14296.821 
 90000      22000          197181      45616 10567.835  8754.4341  11079.091  10780.208 
 90000      22600          197182      46507 19669.579  17596.011  20128.267  20762.543 
 90000      23200          197181      60131 6819.4386  6211.7578  7312.4687  6603.929  
 90000      23800          197182      60726 10788.829  9638.6656  11694.06   11442.608 
 90000      24400          197182      68759 7950.3905  7350.5305  8987.6138  8024.9045 
 90000      25000          197181      72033 6344.5598  5827.9166  7408.3995  6702.0565 
 90000      25600          197182      57525 11865.576  10426.489  12872.465  12401.208 
 90000      26200          197181      70319 6013.9736  6222.6102  7383.2734  7247.5711 
 90000      26800          197181      68404 9607.1393  8530.3113  10234.352  9741.236  
 90000      27400          197182      65991 10081.512  9280.2331  11423.303  11237.404 
 90000      28000          197182      63173 12040.436  11301.754  13347.301  12663.851 
 90000      28600          197182      59890 12499.528  11562.351  14338.927  13292.182 
 90000      29200          197182      51862 14230.429  13514.402  15729.476  15837.193 
 90000      29800          197182      44623 17738.859  17176.603  19687.651  18688.345 
 90000      30400          197182      33472 22584.244  20403.813  24558.746  22700.592 
 90000      31000          197182      19620 32359.588  28735.737  33939.543  32582.339 
 90000      31600          197182      12233 6294.0641  6846.3579  7584.2284  6970.9828 
 90000      32200          197181      17055 6137.4843  6533.5521  7706.5519  6352.9701 
 90000      32800          197182      24514 5980.7602  6396.6323  7334.1347  6320.7088 
 90000      33400          197182      40633 5461.1116  6381.9269  7125.5781  6324.4422 
 90000      34000          197182      80505 4752.7642  5566.2687  6002.81    5576.2094 
 90000      34600          197182     132858 4544.6457  4983.2991  5713.199   5192.9017 
 90000      35200          197181     197241 2124.1708  2562.1885  2557.4593  2425.2969 
 90000      35800          197181     197240 485.75911  545.54927  708.36652  631.75182 
 91000      16000          197182     197240 418.70132  598.18591  717.90832  507.47222 
 91000      16600          197182     197241 1263.2118  1355.9644  1584.348   1518.1231 
 91000      17200          197182     113078 1484.7793  1623.1892  1905.3443  1695.4613 
 91000      17800          197182      90777 1287.8374  1514.6107  1718.7014  1488.3981 
 91000      18400          197181     135354 1225.3745  1196.3656  1574.7359  1557.7024 
 91000      19000          197182      42568 1773.7521  1858.6099  2065.7499  1932.4666 
 91000      19600          197182      25410 1981.8412  2006.7352  2585.86    2529.696  
 91000      20200          197182      16874 2214.0333  2654.437   2780.5328  2628.3009 
 91000      20800          197181      11637 20402.446  18095.203  20598.702  21896.863 
 91000      21400          197182      25580 26768.933  23530.651  29362.654  28419.384 
 91000      22000          197182      36958 24171.49   20408.534  25417.608  25490.093 
 91000      22600          197181      50079 11494.678  10867.115  13065.938  13679.776 
 91000      23200          197182      55113 11751.847  10332.891  12474.044  12018.609 
 91000      23800          197182      61441 8334.4118  7700.6115  9232.1748  8895.0086 
 91000      24400          197182      59987 14470.99   12892.673  16264.038  15279.248 
 91000      25000          197182      64836 10630.6    9123.3386  11387.076  10992.394 
 91000      25600          197182      56816 13232.108  11831.496  14690.646  13767.655 
 91000      26200          197182      66713 6669.5812  6172.977   7524.5496  7147.6972 
 91000      26800          197182      68081 7620.4452  7544.8921  9356.5257  8784.1519 
 91000      27400          197182      62610 14490.407  13476.461  16264.346  15768.354 
 91000      28000          197181      60806 12036.438  11417.052  13133.737  12873.291 
 91000      28600          197182      50024 23869.824  20531.087  24619.767  23780.863 
 91000      29200          197182      33064 46594.736  40596.817  48539.667  47289.057 
 91000      29800          197182      43533 20002.617  19691.389  22594.342  21949.548 
 91000      30400          197181      33371 26014.506  22898.248  27320.221  26976.331 
 91000      31000          197181      15194 44996.907  39760.02   47457.658  44886.384 
 91000      31600          197182      12173 6387.3337  6938.5827  7788.7423  7395.2691 
 91000      32200          197182      16726 6104.7239  6975.6141  7211.3616  6799.7405 
 91000      32800          197182      24256 6075.8972  6504.2053  7484.2016  6539.3595 
 91000      33400          197182      39045 5693.1555  6397.727   7018.8568  6643.0436 
 91000      34000          197182      76567 4890.8821  5340.9457  5967.6223  5167.4355 
 91000      34600          197182     136365 4547.1809  5346.6275  6171.212   5203.226  
 91000      35200          197182     197241 2453.2096  2840.6055  2976.7176  2638.9591 
 91000      35800          197182     197241 380.00037  629.23401  708.01636  562.48533 
 92000      16000          197182     197240 386.61485  436.16851  852.25503  522.34995 
 92000      16600          197182     197241 1234.7612  1382.4231  1614.449   1390.0105 
 92000      17200          197181     109166 1385.4821  1427.4114  1742.757   1626.6806 
 92000      17800          197182      89467 1229.1661  1211.1008  1713.1494  1474.9604 
 92000      18400          197182     140251 1189.0528  1253.1001  1498.4635  1477.6205 
 92000      19000          197182      42352 1730.8642  1663.8864  2017.6331  1969.7618 
 92000      19600          197182      25175 1790.6993  1999.345   2139.5995  2246.2575 
 92000      20200          197181      16915 2444.606   2168.6825  2607.4061  2757.835  
 92000      20800          197182      12779 9535.7216  6963.9274  9228.3661  9532.6115 
 92000      21400          197182      29875 9852.3117  7296.4986  10592.222  10352.514 
 92000      22000          197182      38262 16307.888  12306.706  17739.711  17950.957 
 92000      22600          197182      45391 15820.883  12986.598  17143.704  16615.214 
 92000      23200          197181      55058 10207.673  8231.0041  10586.565  10262.924 
 92000      23800          197182      59942 12361.872  10533.023  13200.573  12306.06  
 92000      24400          197182      60489 10667.768  9975.2916  11435.865  11296.2   
 92000      25000          197182      59943 10683.492  9247.328   11653.503  10968.627 
 92000      25600          197182      32863 19741.659  17006.128  21849.175  20118.469 
 92000      26200          197182      61943 8534.7704  8144.7784  10111.573  8950.486  
 92000      26800          197181      59797 13179.076  11878.315  14044.268  13892.641 
 92000      27400          197182      58376 13927.483  13079.664  15446.127  15125.704 
 92000      28000          197182      55306 17899.505  16862.605  20450.544  19599.71  
 92000      28600          197182      45811 25133.705  23377.217  27790.188  26014.052 
 92000      29200          197182      40077 35988.454  32969.324  38657.427  37509.396 
 92000      29800          197182      30220 48490.628  43036.201  50001.804  48587.784 
 92000      30400          197182      24902 44317.743  40178.108  47980.035  46095.768 
 92000      31000          197181      13332 50792.027  44651.988  53861.301  52381.254 
 92000      31600          197181      12220 7597.1443  7775.4884  8873.3253  8192.787  
 92000      32200          197182      16269 5996.859   6905.802   6981.1295  6740.4702 
 92000      32800          197182      24255 5680.8245  6962.0516  7249.5342  6453.7554 
 92000      33400          197181      38149 5554.6054  6148.9513  7076.1581  6460.9238 
 92000      34000          197182      76975 4996.1287  5497.9259  5925.6416  5567.4919 
 92000      34600          197181     130590 4508.8069  5608.5799  5795.2526  5334.3993 
 92000      35200          197182     197240 2392.8369  2999.8158  3324.3828  2961.7002 
 92000      35800          197182     197240 467.21124  493.25044  711.06601  505.49083 
 93000      16000          197182     197240 363.37827  453.15065  637.16053  572.83599 
 93000      16600          197182     197240 1110.0178  1182.8275  1520.4009  1338.7524 
 93000      17200          197182     115610 1178.3884  1373.8204  1664.2217  1407.3472 
 93000      17800          197182      88745 1138.7817  1393.7146  1601.0686  1454.387  
 93000      18400          197182     153412 1074.6971  1120.1964  1275.7628  1251.806  
 93000      19000          197182      46990 1566.7893  1380.8608  1836.904   1731.6843 
 93000      19600          197182      27241 1653.763   1357.0373  2042.5847  1849.4115 
 93000      20200          197182      17827 1777.5025  1700.8648  2043.3531  2274.7246 
 93000      20800          197181      12156 6515.1119  2668.3896  3947.3559  5238.1712 
 93000      21400          197182      18333 27413.872  6223.6896  12697.155  20346.807 
 93000      22000          197182      27115 23771.942  6496.5141  11816.908  17409.076 
 93000      22600          197182      32108 20081.761  6425.6827  11291.259  15419.39  
 93000      23200          197182      37799 22595.351  7942.4257  14327.644  18074.939 
 93000      23800          197182      37362 20821.359  8836.2353  14404.161  18121.145 
 93000      24400          197182      38007 14342.995  8597.3646  12736.192  13979.519 
 93000      25000          197182      37295 15057.821  11194.201  15589.602  15505.217 
 93000      25600          197182      41315 9495.1104  7647.8531  9284.0807  9769.3409 
 93000      26200          197182      32899 12422.126  11835.753  14385.717  13352.236 
 93000      26800          197182      15212 26034.131  24642.291  28790.255  28123.772 
 93000      27400          197182      27823 33039.311  29709.476  35608.198  35078.389 
 93000      28000          197182       9699 44598.014  40090.714  50076.56   46087.138 
 93000      28600          197181       8512 58200.822  52545.291  62946.946  59275.677 
 93000      29200          197182       7485 75549.106  61106.605  77632.813  76653.668 
 93000      29800          197182       1107 86043.416  78051.941  88817.568  87212.151 
 93000      30400          197182        796 89763.86   81513.519  95263.352  89485.641 
 93000      31000          197181        208 88202.549  78775.407  94531.01   90429.338 
 93000      31600          197182      12191 8415.0953  8560.9071  10081.094  9052.8347 
 93000      32200          197182      16648 6542.5676  7038.6153  8063.7895  7894.0685 
 93000      32800          197182      23797 6483.8853  7258.7673  7137.7582  6715.1596 
 93000      33400          197182      37463 6209.607   6735.1794  6962.5263  6310.4813 
 93000      34000          197182      74867 4721.4066  5774.7885  5899.4827  5735.7831 
 93000      34600          197182     134552 4546.1904  5383.7302  5989.2675  5417.4056 
 93000      35200          197182     197241 2487.7517  2921.0313  3238.48    3035.3366 
 93000      35800          197182     197240 426.84547  546.13996  664.94829  530.84175 
 94000      16000          197181     197240 360.68375  510.55156  637.36804  596.56684 
 94000      16600          197182     197240 1111.5217  1202.2502  1525.6013  1259.8461 
 94000      17200          197182     119665 1329.8662  1306.2165  1587.4461  1601.8583 
 94000      17800          197182      86804 1016.1551  1349.7121  1573.2744  1507.4189 
 94000      18400          197182     167986 967.8982   1174.6654  1385.3037  1405.4022 
 94000      19000          197182      53809 1253.8447  1410.9389  1607.0475  1621.1657 
 94000      19600          197182      28304 1262.7006  1456.691   1607.3147  1356.1653 
 94000      20200          197182      18725 1573.4108  1546.7173  1829.3911  1735.6923 
 94000      20800          197182      13444 1758.9896  1488.0342  1970.2518  1964.6492 
 94000      21400          197182         32 7040.1654  3441.2991  4562.6338  5568.2607 
 94000      22000          197182         44 6654.1623  3985.5873  4894.7937  5494.5154 
 94000      22600          197182        110 5825.4078  3983.5267  5279.0347  5689.8074 
 94000      23200          197182        115 5087.743   3958.1058  5154.8286  5124.2028 
 94000      23800          197182        122 4509.2276  4223.0428  4892.0958  4838.873  
 94000      24400          197182         89 4447.5353  4369.9854  5309.5256  4982.4337 
 94000      25000          197182         47 4564.3403  4790.8373  5927.0771  5612.3406 
 94000      25600          197182         27 5765.2141  5887.7813  6853.3719  6491.9965 
 94000      26200          197182         20 13401.883  13832.902  15865      14797.472 
 94000      26800          197182         21 27180.508  24975.084  29906.872  28400.79  
 94000      27400          197182         20 34878.3    33086.184  39111.796  37589.866 
 94000      28000          197182         12 49906.293  44673.106  52990.911  50542.704 
 94000      28600          197181         10 61822.796  55125.253  66936.132  64098.736 
 94000      29200          197181          9 73327.04   64066.822  80972.845  78098.209 
 94000      29800          197182         11 85550.586  78063.498  90511.072  88612.466 
 94000      30400          197182         12 85603.374  79244.51   92913.236  90289.297 
 94000      31000          197182        675 74278.506  63376.811  76700.782  72706.43  
 94000      31600          197182      12741 8023.4773  7981.9292  9717.9687  9025.9084 
 94000      32200          197182      16397 6678.2789  7273.5672  8376.6268  7558.1741 
 94000      32800          197182      25071 6167.161   6789.5831  7597.4374  7005.4903 
 94000      33400          197182      42209 5896.2258  6449.8687  7063.0991  6449.8913 
 94000      34000          197182      79254 5039.8877  5494.6414  6041.9836  5581.0037 
 94000      34600          197182     123713 4638.255   5078.8278  5619.8139  5047.6657 
 94000      35200          197182     197241 2633.4136  3078.1626  3406.0725  3287.8238 
 94000      35800          197182     197240 396.05452  509.2401   656.72558  592.97692 
 95000      16000          197181     197241 376.23219  535.2292   658.59657  544.55749 
 95000      16600          197182     197240 958.27876  1011.8242  1348.3267  1464.8083 
 95000      17200          197182     116514 1136.2948  1413.4146  1785.8441  1437.4813 
 95000      17800          197182      83833 957.72454  1285.3594  1371.6894  1376.8675 
 95000      18400          197182     161134 947.83026  1288.1101  1442.5972  1403.4574 
 95000      19000          197182      81083 1136.389   1295.727   1437.1054  1580.8024 
 95000      19600          197182      36224 1342.9855  1323.8384  1628.8128  1722.4643 
 95000      20200          197182      22240 1281.9379  1471.799   1634.7858  1508.4412 
 95000      20800          197182      15685 1348.9682  1407.9826  1662.792   1655.9711 
 95000      21400          197182       8757 1525.7516  1536.6615  1692.0353  1658.3584 
 95000      22000          197182         15 1505.7806  1873.5797  2083.5203  1854.8573 
 95000      22600          197182          8 1533.1908  1746.2858  2027.1064  1926.7192 
 95000      23200          197182          5 1730.8445  1809.2024  2224.8433  2116.9549 
 95000      23800          197182          5 2141.6075  2320.6067  2873.1048  2677.5864 
 95000      24400          197182          5 2529.8521  2817.7815  3110.2451  3075.192  
 95000      25000          197182          4 3104.6745  3889.0593  4092.3103  3987.8278 
 95000      25600          197182          5 4710.3419  5221.914   5381.1539  5259.8755 
 95000      26200          197182          4 12324.548  13529.503  15803.797  14680.365 
